wavelength vegetation water mineral
   381.109985    39.482674    35.617630   119.518745
   384.510010    22.026464    63.339844   123.831978
   387.920013    38.315865    46.475594   157.884781
   391.320007    19.144363    42.554108   122.908203
   394.720001    15.057323    31.460821   145.794617
   398.130005     4.481934    44.959007   137.617371
   401.529999    28.594282    21.205418   118.872787
   404.940002    13.814412    17.394186   120.112694
   408.339996    26.057682    27.282131   127.647461
   411.750000    17.410156    17.410156   123.383652
   415.149994    20.489716    16.875158   119.055855
   418.559998    21.843801    17.933868   126.485985
   421.959991    24.067734    16.540720   130.911362
   425.369995    29.466974    17.254107   132.504654
   428.769989    28.976357    23.682508   134.381241
   432.170013    27.581083    17.092474   135.080627
   435.579987    33.940552    15.144011   134.566101
   438.980011    32.605892    16.587831   139.249451
   442.390015    30.659075    18.941208   139.525284
   445.790009    29.617508    17.281572   144.257065
   449.200012    33.144234    18.395754   142.837585
   452.600006    33.499805    18.925583   152.765121
   456.010010    34.314877    15.864511   152.426270
   459.410004    32.905926    19.746471   155.080307
   462.809998    34.058395    19.144537   159.083466
   466.220001    33.424088    19.563334   158.866287
   469.619995    33.667034    18.217615   163.422607
   473.029999    32.672176    17.960781   161.599228
   476.429993    34.456577    20.138901   165.444595
   479.839996    35.400497    17.083881   167.039627
   483.239990    35.052780    17.247334   166.844894
   486.649994    35.880993    18.832977   174.725159
   490.049988    35.192562    17.035275   173.518921
   493.459991    34.573223    18.794790   176.933426
   496.859985    34.195175    18.131901   179.113312
   500.269989    36.318432    19.942833   183.532471
   503.670013    37.817829    19.035843   185.365952
   507.070007    37.712101    18.455671   188.076141
   510.480011    40.000534    20.093880   193.149078
   513.880005    42.770847    20.938162   198.353531
   517.289978    45.467934    20.366528   200.295105
   520.690002    48.031544    19.908747   200.672394
   524.099976    53.894192    18.420563   206.941116
   527.500000    59.093395    17.949497   208.284302
   530.909973    63.013458    19.895313   211.494034
   534.309998    66.208672    19.210938   216.669540
   537.719971    68.402748    19.828213   221.560211
   541.119995    68.796944    19.807875   222.822296
   544.530029    71.043282    21.177101   228.109711
   547.950012    74.469490    18.497368   234.265915
   551.369995    74.340775    19.592932   240.911453
   554.799988    73.697914    19.199976   247.606598
   558.229980    74.697647    19.609224   253.141022
   561.659973    72.291679    20.090311   257.235077
   565.090027    72.680855    19.367550   264.234772
   568.520020    70.501686    19.532932   271.353546
   571.950012    67.523788    19.892149   280.522400
   575.380005    64.627617    20.757217   283.903259
   578.809998    63.688999    20.626837   289.328552
   582.250000    62.276733    18.752243   297.288452
   585.690002    59.803963    17.610378   302.281281
   589.140015    60.172127    15.831709   306.624847
   592.580017    58.759781    13.393682   309.077698
   596.020020    59.539333    13.687822   316.036194
   599.460022    60.999249    10.785249   320.254272
   602.900024    59.405376     9.601274   321.569000
   606.349976    58.018814     7.740108   324.823761
   609.789978    56.439037     8.243352   330.633759
   613.229980    56.908798     8.800665   333.910675
   616.669983    56.231953     9.073367   334.786377
   620.109985    54.417965     6.765416   334.633331
   623.549988    55.155884     8.052738   337.856476
   626.989990    53.015072     7.465039   339.738525
   630.429993    53.759319     6.661718   342.516144
   633.880005    54.657467     7.532488   344.547485
   637.320007    52.511105     6.549103   347.343262
   640.760010    51.032936     6.448219   348.490387
   644.200012    51.629967     6.409851   351.195526
   647.640015    49.650677     5.986623   354.573761
   651.080017    48.965416     6.532737   354.756195
   654.520020    48.053875     4.847181   360.118652
   657.960022    48.555695     4.130320   362.463837
   661.400024    45.994995     2.868380   363.224976
   664.849976    44.334274     2.407162   362.434723
   668.299988    43.746189     0.292059   365.101318
   671.750000    41.663364     2.443301   369.578674
   675.200012    43.588161     0.691505   370.329224
   678.640015    44.890194     1.446907   373.453613
   682.090027    44.820869     0.000000   372.392273
   685.539978    46.899574     0.000000   376.338043
   688.989990    51.300117     0.000000   374.372375
   692.429993    59.054077     0.000000   379.501312
   695.789978    68.900261     0.000000   380.240448
   699.140015    81.894135     0.000000   382.533600
   702.489990    96.113167     0.000000   382.460144
   705.859985   113.434143     0.000000   381.628937
   709.390015   132.764389     0.000000   385.684540
   712.969971   153.471802     0.000000   386.325897
   716.539978   174.146271     0.000000   393.540070
   719.989990   194.018814     0.000000   390.156799
   723.369995   218.435654     0.000000   389.438812
   726.750000   241.929871     0.000000   391.271271
   730.130005   263.572510     0.000000   387.194641
   733.510010   287.968964     0.000000   389.380096
   736.890015   305.824219     0.000000   393.205414
   740.320007   322.743866     0.000000   393.698425
   743.770020   332.886200     0.000000   395.592682
   747.219971   343.853424     0.000000   395.505585
   750.659973   351.084137     0.000000   397.648529
   754.109985   357.026062     0.000000   395.694275
   757.559998   361.252289     0.000000   402.083649
   761.010010   362.504669     0.000000   412.480988
   764.489990   349.493652     0.000000   385.143555
   768.000000   361.617981     0.000000   394.422455
   771.520020   365.879303     0.000000   401.605408
   775.030029   370.914032     0.000000   405.851105
   778.549988   372.097412     0.000000   404.943024
   782.059998   372.130737     0.000000   406.791412
   785.539978   374.924927     0.000000   407.465698
   788.919983   375.926636     0.000000   406.414032
   792.280029   377.555176     0.000000   408.062469
   795.640015   379.218994     0.000000   406.744720
   799.000000   381.608093     0.000000   414.745850
   802.479980   382.875641     0.000000   411.626190
   806.070007   384.073547     0.000000   411.554871
   809.659973   382.230316     0.000000   412.078400
   813.159973   385.717682     0.000000   416.104431
   816.609985   382.333649     0.000000   413.541412
   820.059998   380.701050     0.000000   405.996613
   823.510010   384.597931     0.000000   412.598602
   826.960022   387.835541     0.000000   412.251373
   830.409973   389.076202     0.000000   415.039154
   833.859985   387.382019     0.000000   416.742096
   837.309998   386.653046     0.000000   419.061981
   840.760010   389.143524     0.000000   419.383728
   844.210022   394.043182     0.000000   423.610413
   847.659973   391.882812     0.000000   420.409058
   851.090027   394.070526     0.000000   422.648468
   854.460022   394.923157     0.000000   421.182709
   857.820007   396.671692     0.000000   420.528748
   861.179993   396.141022     0.000000   423.102325
   864.539978   396.222656     0.000000   427.896881
   868.000000   396.915649     0.000000   425.395508
   871.590027   399.318451     0.000000   425.386017
   875.169983   402.345581     0.000000   428.856567
   878.700012   400.747345     0.000000   427.879425
   882.150024   401.206238     0.000000   427.434662
   885.599976   399.920380     0.000000   435.293365
   889.049988   399.162384     0.000000   425.963043
   892.489990   405.335663     0.000000   431.262909
   895.880005   409.811615     0.000000   433.598022
   899.260010   409.500031     0.000000   438.977142
   902.630005   392.761597     0.000000   433.357849
   906.010010   403.702423     0.000000   434.791565
   909.380005   402.841888     0.000000   434.562164
   912.780029   403.885437     0.000000   436.692322
   916.229980   397.286774     0.000000   437.297943
   919.679993   394.051666     0.000000   427.278503
   923.130005   402.890076     0.000000   440.790710
   926.580017   404.837433     0.000000   434.405121
   930.030029   404.067993     0.000000   446.422638
   933.479980   413.090637     0.000000   470.946960
   936.929993   347.804443     0.000000   408.265259
   940.380005   380.915894     0.000000   421.300629
   943.830017   372.787811     0.000000   427.134125
   947.280029   390.834991     0.000000   426.658508
   950.729980   360.353485     0.000000   435.963531
   954.179993   379.161591     0.000000   435.678589
   957.619995   344.795227     0.000000   420.556244
   961.070007   353.125092     0.000000   443.998871
   964.520020   350.148132     0.000000   451.876190
   967.969971   350.850250     0.000000   452.313446
   971.419983   345.329468     0.000000   468.407074
   974.869995   375.329559     0.000000   457.804504
   969.270020   343.856171     0.000000   465.117096
   974.919983   339.326874     0.000000   450.054810
   980.580017   342.492767     0.000000   451.111511
   986.229980   351.447235     0.000000   444.791168
   991.880005   359.443207     0.000000   458.116608
   997.530029   367.885162     0.000000   463.345032
  1003.179993   380.253906     0.000000   473.383270
  1008.840027   385.012573     0.000000   475.086670
  1014.489990   388.049774     0.000000   477.454651
  1020.140015   395.097778     0.000000   479.682892
  1025.790039   399.866394     0.000000   482.490692
  1031.449951   404.245483     0.000000   482.656799
  1037.099976   411.259033     0.000000   483.857544
  1042.750000   415.810364     0.000000   485.338348
  1048.400024   415.617126     0.000000   490.349060
  1054.060059   424.140808     0.000000   491.782532
  1059.709961   428.952240     0.000000   491.394348
  1065.359985   428.885437     0.000000   494.599091
  1071.010010   431.370728     0.000000   494.080627
  1076.660034   430.878540     0.000000   495.030640
  1082.319946   432.686890     0.000000   496.627106
  1087.969971   432.091919     0.000000   498.139191
  1093.619995   431.023438     0.000000   504.123505
  1099.270020   432.530701     0.000000   507.299896
  1104.920044   429.048035     0.000000   503.674683
  1110.579956   430.377808     0.000000   513.260071
  1116.229980   444.569397     0.000000   534.916382
  1121.880005   427.988129     0.000000   536.598877
  1127.530029   396.482422     0.000000   500.012268
  1133.180054   368.691742     0.000000   486.450348
  1138.839966   355.818390     0.000000   486.022125
  1144.489990   354.344147     0.000000   505.552704
  1150.140015   327.530609     0.000000   499.324860
  1155.790039   308.078827     0.000000   483.027405
  1161.449951   304.058014     0.000000   490.957794
  1167.099976   307.683075     0.000000   501.726379
  1172.750000   313.273651     0.000000   515.328308
  1178.400024   311.926422     0.000000   519.771362
  1184.060059   312.930054     0.000000   520.452637
  1189.709961   307.796570     0.000000   517.800537
  1195.359985   307.320953     0.000000   519.883667
  1201.010010   310.101990     0.000000   524.424744
  1206.660034   309.219116     0.039504   522.131042
  1212.319946   311.189636     0.000000   521.536072
  1217.969971   312.922852     0.000000   524.321777
  1223.619995   315.024811     0.000000   527.859497
  1229.270020   316.155609     0.000000   526.010315
  1234.920044   318.981140     0.000000   527.775757
  1240.579956   323.309052     0.000000   531.913330
  1246.229980   323.924927     0.000000   532.768066
  1251.880005   326.461212     0.029591   534.282654
  1257.530029   328.214844     0.000000   537.448059
  1263.180054   330.807831     0.000000   536.679443
  1268.839966   327.787964     0.000000   534.973755
  1274.489990   324.254730     0.373567   528.786194
  1280.140015   324.235291     0.000000   533.765503
  1285.790039   324.010956     0.062182   537.710999
  1291.449951   321.527771     1.430057   534.832397
  1297.099976   317.190125     0.561894   541.639099
  1302.750000   313.606720     0.000000   544.850281
  1308.400024   307.782471     0.638957   543.969116
  1314.060059   297.740875     0.000000   543.875671
  1319.709961   289.056152     0.000000   542.602173
  1325.359985   282.431274     0.000000   547.795837
  1331.010010   274.522003     0.541026   554.916077
  1336.660034   263.538239     0.406191   546.751892
  1342.319946   259.979034     0.756592   554.111145
  1347.969971   281.044617     0.000000   596.407532
  1353.619995   292.965210     0.000000   657.016724
  1359.270020   283.784698     0.000000   611.895752
  1364.920044   299.037140     0.000000   596.376892
  1370.560059   274.014038     0.000000   579.981934
  1376.170044   288.798004     0.000000   604.724915
  1381.780029   242.652267     0.000000   619.589783
  1387.380005   283.287109     0.000000   630.355896
  1392.989990   244.764572     0.000000   546.249634
  1398.589966   238.895615     0.000000   562.328857
  1404.199951   208.007965     0.000000   539.454407
  1409.810059   179.892700     0.000000   497.118958
  1415.410034   139.761185     0.000000   514.296631
  1421.020020   101.779686     0.000000   482.384399
  1426.619995    79.554932     0.000000   456.074860
  1432.229980    92.305489     0.000000   489.010834
  1437.829956    76.631096     7.401524   499.700684
  1443.439941    67.869644     6.856047   484.069519
  1449.040039    62.890076     3.261072   477.112885
  1454.650024    56.883026     3.410126   487.940063
  1460.250000    57.647617     5.701512   502.899933
  1465.859985    61.557995     7.016610   525.646729
  1471.459961    64.334610     7.756009   526.015991
  1477.069946    62.888287     2.215937   499.060333
  1482.670044    66.023216     7.120645   506.013580
  1488.280029    65.384132     9.541178   495.865814
  1493.890015    71.224854     6.994909   505.652832
  1499.489990    76.525970     7.905368   520.702637
  1505.099976    78.550713     9.049196   524.578430
  1510.699951    82.862343     9.616041   526.591064
  1516.310059    85.227158     8.851236   533.473755
  1521.910034    89.923286     9.104479   533.764221
  1527.520020    94.383667     9.214253   537.891296
  1533.119995    98.776398     8.742229   539.021118
  1538.729980   102.843460     8.533259   544.020996
  1544.329956   107.855392     7.684878   543.680115
  1549.939941   110.027840     9.430993   545.486267
  1555.550049   114.461739     7.697951   546.401489
  1561.150024   119.393539     5.689225   547.515015
  1566.760010   121.362679     8.493787   551.936646
  1572.359985   125.028519     5.250786   554.157043
  1577.969971   130.061340     7.492731   552.499146
  1583.569946   131.531677     9.660609   547.022034
  1589.180054   135.306137     7.643366   554.270813
  1594.780029   138.339493     8.115479   555.606628
  1600.390015   143.123154     6.686918   561.455017
  1605.989990   144.496170     9.093207   555.297668
  1611.599976   144.741013     5.300288   556.819580
  1617.199951   146.212738     6.179794   560.589478
  1622.810059   151.541351     6.833858   562.415771
  1628.410034   154.544601     5.739188   565.985229
  1634.020020   159.158340     6.887219   572.211914
  1639.630005   159.362961     4.103022   568.115234
  1645.229980   159.369080     5.395639   568.729553
  1650.839966   162.822983     4.875399   568.176697
  1656.439941   163.790115     3.127607   570.343628
  1662.050049   166.385712     2.746535   584.259583
  1667.650024   168.879227     2.354788   589.948181
  1673.260010   167.846039     2.145040   585.797180
  1678.859985   167.229675     1.875770   583.981384
  1684.469971   169.048538     2.341338   590.383850
  1690.069946   167.949936     3.125784   588.761169
  1695.680054   164.361618     4.221462   585.578735
  1701.290039   165.821487     3.476850   585.359436
  1706.890015   163.609253     1.720811   588.041138
  1712.500000   165.056061     6.866783   584.104553
  1718.099976   161.480865     3.616115   580.997498
  1723.709961   161.518600     4.416253   590.845154
  1729.310059   158.697479     3.859564   584.445129
  1734.920044   157.533813     2.243610   592.677246
  1740.520020   149.642899     1.286111   589.555115
  1746.130005   149.729446     4.401664   587.210999
  1751.729980   144.644135     4.918171   580.558777
  1757.339966   146.213943     6.684926   583.886353
  1762.939941   144.039078     7.951547   584.418274
  1768.550049   138.257095     2.361456   582.064453
  1774.150024   133.726578     5.842835   579.362244
  1779.760010   140.253525     8.050784   587.948975
  1785.369995   134.413834     4.783486   582.961792
  1790.969971   134.667419     7.921971   589.459961
  1796.579956   148.911316     9.771704   624.182922
  1802.180054   145.028595    10.202264   644.343018
  1807.790039   169.140701    11.254237   642.800110
  1813.390015   180.259979     4.720512   654.524475
  1819.000000   180.793564     0.000000   688.752502
  1824.599976   154.928467     0.000000   827.309692
  1830.209961   156.498886     0.000000   814.122559
  1835.810059   101.625290     0.000000   869.230286
  1841.420044   250.647156     0.000000   813.031677
  1847.030029   230.007233     0.000000   748.225098
  1852.630005   129.538422     0.000000   754.334534
  1858.239990   200.894653     0.000000   735.819153
  1863.839966   262.017212     0.000000   862.862854
  1869.449951   158.561157    27.639919   725.886536
  1875.050049    17.628971     0.000000   559.032776
  1880.660034     0.000000     0.000000  1121.820679
  1886.260010     0.000000     0.000000   838.647888
  1891.869995     0.000000   122.941772   317.076660
  1897.469971    23.006760    56.712959   831.955566
  1903.079956     0.000000     0.000000   760.357605
  1908.680054    74.486488     0.000000  1157.116089
  1914.290039   599.425293    47.817436   859.005493
  1919.890015     0.000000     0.000000   359.029510
  1925.500000   149.369110     0.000000   717.342163
  1931.109985    43.594818     0.000000   379.628021
  1936.709961    12.934029    50.931053   468.898315
  1942.319946    33.559883     0.000000   449.929474
  1947.920044    33.326508     5.248439   426.419403
  1953.530029    46.076176    14.488653   431.443909
  1959.130005    45.682308     0.000000   452.254761
  1964.739990    30.063438    17.976364   422.893433
  1970.339966    33.462444     4.380849   446.057556
  1975.949951    23.457594     9.226594   451.065216
  1981.550049    30.623112     8.177370   468.876282
  1987.160034    38.387959     8.031346   479.570770
  1992.770020    31.789017    10.709529   488.854034
  1998.369995    40.116077    13.931489   507.074646
  2003.979980    33.938831    15.972694   578.207275
  2009.579956    44.559399     6.352571   513.957642
  2015.189941    51.788834     8.564828   494.542816
  2020.790039    46.218071    12.110955   497.189941
  2026.400024    37.312130     9.282225   484.516602
  2032.000000    42.172264     6.915132   509.818970
  2037.609985    42.475636    10.269085   519.045593
  2043.209961    41.115154     7.337908   529.153137
  2048.820068    43.725609     6.931806   543.935059
  2054.419922    48.374329    12.835050   553.578857
  2060.030029    49.131660     8.443736   545.763672
  2065.639893    52.369324     6.482617   528.443848
  2071.239990    50.913792     6.651840   531.632202
  2076.850098    43.870728     7.933496   534.338013
  2082.449951    50.151421     9.173044   532.785645
  2088.060059    54.693211    13.553084   547.061768
  2093.659912    52.812393     8.801191   554.365845
  2099.270020    61.497452    11.348598   550.448792
  2104.870117    62.456600    10.578586   541.792358
  2110.479980    64.630699     6.973057   535.218872
  2116.080078    58.446777     6.923654   542.764038
  2121.689941    61.923283     9.988809   550.459534
  2127.290039    64.237427     9.285428   549.942139
  2132.899902    64.198807     2.359608   570.279846
  2138.510010    66.258682     0.000000   600.288818
  2144.110107    62.371471     2.365705   586.953125
  2149.719971    69.883461     7.839314   553.198364
  2155.320068    78.739174     9.171666   549.943115
  2160.929932    70.309013     2.274946   577.987427
  2166.530029    82.912354     6.555167   596.979065
  2172.139893    67.815338     4.167530   548.483521
  2177.739990    76.367744     6.953755   525.883057
  2183.350098    78.890305     4.829218   550.838196
  2188.949951    73.408112     0.000000   572.192688
  2194.560059    75.550514     5.115026   551.393250
  2200.159912    76.237686     8.285946   521.012695
  2205.770020    71.304047     4.875617   503.350311
  2211.379883    72.946335     9.174547   490.726837
  2216.979980    79.865173     6.997318   491.048035
  2222.590088    77.475815    12.262065   477.083435
  2228.189941    72.905327     7.951382   479.451599
  2233.800049    73.239784    18.153864   476.732330
  2239.399902    79.984184    13.719850   467.906647
  2245.010010    71.472694    15.890982   490.285767
  2250.610107    71.534340     4.837935   528.727539
  2256.219971    66.667084     4.289508   561.023926
  2261.820068    69.062485     0.000000   588.950867
  2267.429932    75.909775     0.000000   592.377747
  2273.030029    73.513596     4.419066   571.652283
  2278.639893    75.841537     1.636163   557.208618
  2284.239990    69.007263     0.000000   543.261475
  2289.850098    57.144432    16.912218   517.713196
  2295.459961    75.780785     1.386719   542.380371
  2301.060059    67.420242     2.989218   513.620178
  2306.669922    71.174957     0.000000   510.706116
  2312.270020    57.378777     0.000000   508.845093
  2317.879883    56.600399     0.000000   532.599854
  2323.479980    45.436111     9.222567   502.385132
  2329.090088    41.872002     8.477120   490.216034
  2334.689941    61.586559    17.657961   491.807922
  2340.300049     0.000000     2.986148   528.548828
  2345.899902    58.332512     0.000000   522.179565
  2351.510010    62.765488     4.193731   504.116119
  2357.110107    58.606525     0.000000   506.868835
  2362.719971    50.530037     0.339399   505.896027
  2368.330078    53.473457     0.083626   502.281738
  2373.929932    47.902061     2.090773   555.419250
  2379.540039    53.568966     0.000000   546.624695
  2385.139893    52.535854     2.919885   486.432373
  2390.750000    34.746017     0.000000   502.970886
  2396.350098    37.644348     5.740609   503.438965
  2401.959961    39.855289     3.513998   578.561462
  2407.560059    25.815384    15.208581   536.002625
  2413.169922    46.489723     6.307211   533.272156
  2418.770020    27.047020     4.049525   466.554657
  2424.379883    31.915947    47.921116   458.235443
  2429.989990    73.296440    29.464209   419.845062
  2435.590088    38.519314     3.395280   411.046997
  2441.199951    53.337585    38.069340   395.346283
  2446.800049    31.624578     3.794667   453.467438
  2452.409912    17.296614     0.000000   571.589050
  2458.010010     0.000000     0.000000   743.469238
  2463.620117    35.816479     2.878000   536.951965
  2469.219971    49.654362     0.000000   501.188690
  2474.830078     6.502563    14.567947   522.687134
  2480.429932    78.525009    14.991796   529.033264
  2486.040039     0.000000    89.373276   554.979858
  2491.639893   171.367020    75.937279   541.858948
  2497.250000   193.692078    81.122009    99.883682
  2502.860107     0.000000     0.000000   501.634705
